File: Version_on_OGprivaterepo/Data/Raman/KL_SWRZ_060524/Spectra/18 KL0919-003-A-meltfilm_CRR_DiadFit.txt
1042.41	693.75
1044.68	693.75
1046.94	688.75
1049.21	691.5
1051.47	687.25
1053.73	687.75
1055.99	688.25
1058.25	685.25
1060.51	684.25
1062.77	683.25
1065.03	688.25
1067.29	684.25
1069.54	686.0
1071.8	685.5
1074.05	680.5
1076.3	683.25
1078.55	681.75
1080.8	684.0
1083.05	682.5
1085.3	682.75
1087.55	681.5
1089.8	684.75
1092.04	682.75
1094.29	686.0
1096.53	685.25
1098.78	681.25
1101.02	684.0
1103.26	680.5
1105.5	681.75
1107.74	678.5
1109.98	683.25
1112.22	684.75
1114.46	682.0
1116.69	682.0
1118.93	681.25
1121.16	681.0
1123.39	680.5
1125.63	680.75
1127.86	683.75
1130.09	688.0
1132.32	683.75
1134.55	680.75
1136.78	680.5
1139	680.75
1141.23	684.5
1143.45	677.75
1145.68	681.0
1147.9	678.25
1150.12	679.75
1152.34	681.25
1154.57	682.0
1156.78	683.0
1159	680.5
1161.22	684.75
1163.44	681.25
1165.65	681.5
1167.87	677.75
1170.08	684.25
1172.3	679.25
1174.51	684.25
1176.72	675.75
1178.93	675.25
1181.14	678.75
1183.35	679.25
1185.56	678.5
1187.76	675.75
1189.97	678.0
1192.17	680.25
1194.38	681.0
1196.58	677.0
1198.78	677.0
1200.98	680.75
1203.19	683.25
1205.38	681.25
1207.58	682.0
1209.78	677.0
1211.98	683.25
1214.17	680.25
1216.37	680.25
1218.56	679.25
1220.76	682.0
1222.95	679.75
1225.14	680.75
1227.33	684.25
1229.52	679.25
1231.71	685.25
1233.9	683.25
1236.08	682.75
1238.27	684.5
1240.45	685.0
1242.64	684.5
1244.82	685.0
1247	687.5
1249.18	684.5
1251.36	689.0
1253.54	684.75
1255.72	686.0
1257.9	686.0
1260.08	707.75
1262.25	690.5
1264.43	717.5
1266.6	727.5
1268.78	689.75
1270.95	688.75
1273.12	689.0
1275.29	690.75
1277.46	688.5
1279.63	689.75
1281.8	697.75
1283.96	766.75
1286.13	1953.0
1288.29	724.75
1290.46	700.75
1292.62	693.5
1294.78	688.5
1296.95	690.25
1299.11	691.25
1301.27	689.0
1303.43	687.0
1305.58	688.25
1307.74	689.75
1309.9	690.5
1312.05	689.0
1314.21	686.25
1316.36	684.5
1318.51	687.5
1320.66	687.0
1322.81	685.5
1324.96	687.5
1327.11	691.0
1329.26	683.25
1331.41	685.25
1333.56	690.25
1335.7	687.75
1337.85	685.75
1339.99	685.75
1342.13	687.5
1344.27	685.25
1346.41	688.0
1348.55	684.0
1350.69	685.75
1352.83	686.5
1354.97	686.75
1357.11	688.0
1359.24	685.25
1361.38	685.75
1363.51	689.5
1365.64	683.5
1367.77	689.5
1369.91	691.25
1372.04	693.25
1374.17	690.25
1376.29	696.0
1378.42	690.0
1380.55	692.75
1382.67	700.5
1384.8	706.0
1386.92	757.5
1389.05	2930.5
1391.17	763.75
1393.29	705.25
1395.41	694.5
1397.53	693.25
1399.65	689.25
1401.77	692.0
1403.88	688.0
1406	691.0
1408.11	699.5
1410.23	812.25
1412.34	707.75
1414.45	693.25
1416.57	685.5
1418.68	688.5
1420.79	684.0
1422.89	688.25
1425	688.75
1427.11	695.5
1429.22	686.25
1431.32	684.25
1433.43	685.25
1435.53	679.5
1437.63	682.0
1439.73	685.75
1441.84	682.25
1443.94	682.0
1446.03	683.25
1448.13	683.5
1450.23	678.75
1452.33	683.5
1454.42	680.0
1456.52	677.5
1458.61	678.5
1460.7	675.75
1462.8	683.0
1464.89	678.75
1466.978	677.25
1469.07	680.75
1471.16	678.25
1473.24	675.5
1475.33	677.5
1477.42	677.75
1479.5	681.5
1481.59	675.75
1483.67	676.5
1485.75	676.25
1487.83	678.75
1489.91	677.75
1491.99	675.75
1494.07	675.75
1496.15	676.25
1498.23	675.75
1500.3	675.75
1502.38	675.0
1504.45	674.75
1506.53	678.75
1508.6	675.5
1510.67	689.25
1512.74	677.25
1514.81	678.5
1516.88	678.5
1518.95	679.5
1521.02	679.5
1523.09	678.5
1525.15	679.25
1527.73	679.5
1529.8	676.0
1531.86	679.75
1533.92	679.75
1535.98	677.0
1538.04	676.5
1540.1	681.25
1542.16	681.0
1544.22	676.0
1546.28	679.0
1548.33	678.25
1550.39	677.25
1552.44	676.5
1554.5	679.5
1556.55	680.25
1558.6	681.5
1560.65	678.5
1562.7	681.5
1564.75	684.25
1566.8	688.5
1568.85	687.25
1570.89	680.25
1572.94	676.5
1574.98	680.5
1577.03	677.75
1579.07	678.25
1581.11	676.75
1583.15	679.0
1585.19	676.75
1587.23	674.75
1589.27	676.0
1591.31	679.0
1592.33	672.75