File: Version_on_OGprivaterepo/Data/Raman/KL_SWRZ_060624/Spectra/14 KL0919-005-A-meltfilm_CRR_DiadFit.txt
1042.41	708.25
1044.68	706.0
1046.94	699.75
1049.21	695.25
1051.47	690.25
1053.73	687.25
1055.99	693.5
1058.25	688.5
1060.51	685.0
1062.77	685.25
1065.03	687.25
1067.29	682.25
1069.54	680.75
1071.8	681.25
1074.05	680.5
1076.3	681.75
1078.55	685.25
1080.8	681.5
1083.05	680.75
1085.3	680.25
1087.55	684.75
1089.8	680.25
1092.04	683.0
1094.29	683.25
1096.53	683.0
1098.78	682.75
1101.02	680.25
1103.26	678.75
1105.5	678.25
1107.74	679.25
1109.98	681.0
1112.22	682.0
1114.46	679.25
1116.69	681.25
1118.93	682.25
1121.16	680.5
1123.39	678.25
1125.63	676.75
1127.86	678.75
1130.09	681.75
1132.32	683.5
1134.55	678.75
1136.78	681.75
1139	683.0
1141.23	680.25
1143.45	681.5
1145.68	679.75
1147.9	682.0
1150.12	682.75
1152.34	681.5
1154.57	681.25
1156.78	680.25
1159	682.25
1161.22	681.5
1163.44	681.5
1165.65	675.0
1167.87	681.75
1170.08	680.5
1172.3	683.5
1174.51	685.75
1176.72	680.0
1178.93	682.0
1181.14	686.0
1183.35	679.5
1185.56	685.25
1187.76	686.0
1189.97	680.5
1192.17	680.0
1194.38	684.0
1196.58	685.0
1198.78	682.75
1200.98	681.75
1203.19	682.5
1205.38	682.75
1207.58	680.5
1209.78	684.75
1211.98	682.5
1214.17	684.0
1216.37	682.75
1218.56	681.0
1220.76	681.75
1222.95	681.5
1225.14	681.0
1227.33	681.5
1229.52	684.5
1231.71	684.25
1233.9	685.0
1236.08	681.0
1238.27	686.75
1240.45	685.5
1242.64	683.5
1244.82	686.0
1247	686.75
1249.18	688.0
1251.36	689.5
1253.54	686.75
1255.72	686.0
1257.9	681.25
1260.08	701.0
1262.25	685.5
1264.43	695.75
1266.6	692.5
1268.78	689.25
1270.95	689.0
1273.12	687.5
1275.29	689.0
1277.46	686.75
1279.63	687.75
1281.8	689.0
1283.96	715.0
1286.13	821.75
1288.29	690.5
1290.46	691.75
1292.62	690.5
1294.78	684.75
1296.95	686.25
1299.11	685.25
1301.27	688.75
1303.43	686.5
1305.58	687.0
1307.74	690.5
1309.9	685.0
1312.05	685.0
1314.21	685.25
1316.36	685.0
1318.51	687.75
1320.66	684.0
1322.81	686.5
1324.96	689.75
1327.11	686.0
1329.26	687.0
1331.41	687.0
1333.56	687.25
1335.7	685.0
1337.85	687.75
1339.99	686.25
1342.13	684.75
1344.27	688.5
1346.41	688.5
1348.55	687.5
1350.69	688.5
1352.83	684.75
1354.97	689.75
1357.11	686.0
1359.24	691.25
1361.38	689.75
1363.51	687.75
1365.64	690.0
1367.77	691.0
1369.91	686.25
1372.04	688.25
1374.17	692.5
1376.29	692.0
1378.42	689.25
1380.55	688.75
1382.67	692.5
1384.8	690.25
1386.92	709.75
1389.05	1106.25
1391.17	698.0
1393.29	692.5
1395.41	694.0
1397.53	691.25
1399.65	693.5
1401.77	688.0
1403.88	691.5
1406	692.0
1408.11	691.0
1410.23	717.0
1412.34	691.0
1414.45	694.0
1416.57	688.25
1418.68	691.25
1420.79	687.0
1422.89	692.5
1425	688.5
1427.11	689.25
1429.22	688.0
1431.32	690.75
1433.43	688.5
1435.53	684.75
1437.63	689.25
1439.73	687.0
1441.84	694.5
1443.94	688.5
1446.03	687.25
1448.13	687.25
1450.23	690.0
1452.33	688.5
1454.42	692.25
1456.52	689.5
1458.61	695.25
1460.7	691.5
1462.8	698.5
1465.41	683.0
1467.5	688.25
1469.59	687.25
1471.68	690.5
1473.77	688.75
1475.85	690.5
1477.94	692.5
1480.02	690.0
1482.11	693.25
1484.19	687.0
1486.27	686.5
1488.35	689.75
1490.43	685.5
1492.51	688.5
1494.59	688.5
1496.67	688.75
1498.75	687.75
1500.82	692.5
1502.9	689.25
1504.97	686.0
1507.05	691.75
1509.12	686.75
1511.19	688.0
1513.26	692.0
1515.33	688.0
1517.4	691.0
1519.47	689.0
1521.54	691.75
1523.6	692.25
1525.67	692.25
1527.73	692.25
1529.8	687.75
1531.86	690.5
1533.92	689.25
1535.98	690.25
1538.04	689.75
1540.1	691.0
1542.16	688.0
1544.22	686.5
1546.28	695.0
1548.33	694.25
1550.39	690.75
1552.44	693.75
1554.5	691.75
1556.55	695.25
1558.6	693.5
1560.65	689.25
1562.7	696.0
1564.75	692.75
1566.8	694.75
1568.85	690.75
1570.89	695.5
1572.94	687.25
1574.98	693.25
1577.03	691.0
1579.07	690.5
1581.11	692.75
1583.15	695.25
1585.19	693.0
1587.23	691.75
1589.27	691.75
1591.31	693.0
1592.33	689.75