File: Version_on_OGprivaterepo/Data/Raman/KL_SWRZ_060624/Spectra/40 KL0919-010-C-meltfilm_CRR_DiadFit.txt
1042.41	718.0
1044.68	712.5
1046.94	702.0
1049.21	702.25
1051.47	693.0
1053.73	693.25
1055.99	691.5
1058.25	688.25
1060.51	690.0
1062.77	688.25
1065.03	688.75
1067.29	687.25
1069.54	690.25
1071.8	686.0
1074.05	683.75
1076.3	683.25
1078.55	685.0
1080.8	682.0
1083.05	682.25
1085.3	681.25
1087.55	683.75
1089.8	686.75
1092.04	685.75
1094.29	685.25
1096.53	680.25
1098.78	682.25
1101.02	683.5
1103.26	677.5
1105.5	684.75
1107.74	680.75
1109.98	684.5
1112.22	680.0
1114.46	678.25
1116.69	680.0
1118.93	681.25
1121.16	678.0
1123.39	682.5
1125.63	685.75
1127.86	694.5
1130.09	689.75
1132.32	685.5
1134.55	685.5
1136.78	679.0
1139	681.5
1141.23	683.25
1143.45	681.0
1145.68	679.5
1147.9	684.5
1150.12	681.75
1152.34	681.0
1154.57	675.0
1156.78	681.75
1159	681.75
1161.22	681.0
1163.44	684.75
1165.65	681.75
1167.87	681.5
1170.08	681.0
1172.3	682.75
1174.51	678.5
1176.72	678.75
1178.93	679.25
1181.14	681.0
1183.35	678.75
1185.56	678.0
1187.76	683.0
1189.97	680.0
1192.17	680.25
1194.38	681.25
1196.58	680.5
1198.78	681.25
1200.98	678.5
1203.19	681.5
1205.38	680.0
1207.58	678.75
1209.78	681.75
1211.98	684.25
1214.17	680.0
1216.37	682.25
1218.56	676.75
1220.76	680.25
1222.95	677.0
1225.14	680.25
1227.33	678.5
1229.52	678.0
1231.71	686.25
1233.9	687.0
1236.08	679.5
1238.27	680.25
1240.45	679.25
1242.64	679.5
1244.82	679.5
1247	680.75
1249.18	684.0
1251.36	680.0
1253.54	679.0
1255.72	680.75
1257.9	680.5
1260.08	693.75
1262.25	682.75
1264.43	680.0
1266.6	690.25
1268.78	677.25
1270.95	683.0
1273.12	681.75
1275.29	676.75
1277.46	682.25
1279.63	679.25
1281.8	682.75
1283.96	685.5
1286.13	883.25
1288.29	689.5
1290.46	680.0
1292.62	677.25
1294.78	681.0
1296.95	680.25
1299.11	681.25
1301.27	681.5
1303.43	677.5
1305.58	679.5
1307.74	679.25
1309.9	679.25
1312.05	676.75
1314.21	674.5
1316.36	678.0
1318.51	677.75
1320.66	678.0
1322.81	675.0
1324.96	680.0
1327.11	679.0
1329.26	682.25
1331.41	678.75
1333.56	680.0
1335.7	677.25
1337.85	676.0
1339.99	680.25
1342.13	678.0
1344.27	680.25
1346.41	680.25
1348.55	678.75
1350.69	678.75
1352.83	679.25
1354.97	680.0
1357.11	678.5
1359.24	682.0
1361.38	680.25
1363.51	682.25
1365.64	679.25
1367.77	681.75
1369.91	678.75
1372.04	675.0
1374.17	681.25
1376.29	676.75
1378.42	679.25
1380.55	678.5
1382.67	679.25
1384.8	679.0
1386.92	684.75
1389.05	895.0
1391.17	689.5
1393.29	678.75
1395.41	681.0
1397.53	676.5
1399.65	680.0
1401.77	679.5
1403.88	679.25
1406	676.25
1408.11	678.25
1410.23	699.25
1412.34	684.0
1414.45	679.0
1416.57	676.25
1418.68	680.25
1420.79	680.25
1422.89	680.0
1425	677.0
1427.11	678.75
1429.22	682.25
1431.32	678.75
1433.43	679.75
1435.53	675.75
1437.63	678.0
1439.73	678.0
1441.84	678.75
1443.94	676.25
1446.03	677.25
1448.13	680.75
1450.23	679.75
1452.33	677.25
1454.42	680.75
1456.52	674.75
1458.61	678.75
1460.7	680.0
1462.8	687.25
1465.93	679.5
1468.02	678.25
1470.11	681.0
1472.2	684.75
1474.29	677.5
1476.37	682.75
1478.46	680.75
1480.54	679.5
1482.63	682.75
1484.71	678.75
1486.79	679.0
1488.87	677.0
1490.95	678.5
1493.03	678.5
1495.11	679.0
1497.19	675.75
1499.27	676.5
1501.34	674.25
1503.42	674.25
1505.49	677.25
1507.56	673.5
1509.64	677.25
1511.71	680.0
1513.78	675.0
1515.85	677.75
1517.92	674.25
1519.99	682.0
1522.05	675.75
1524.12	677.25
1526.19	711.75
1528.25	682.5
1530.31	682.0
1532.38	676.25
1534.44	678.25
1536.5	680.75
1538.56	678.0
1540.62	677.5
1542.68	678.75
1544.73	676.75
1546.79	679.5
1548.85	681.0
1550.9	680.75
1552.96	679.0
1555.01	683.75
1557.06	680.25
1559.11	675.0
1561.16	684.25
1563.21	679.75
1565.26	687.0
1567.31	685.5
1569.36	681.0
1571.4	679.0
1573.45	680.5
1575.49	679.5
1577.54	677.75
1579.58	681.0
1581.62	677.5
1583.66	679.5
1585.7	676.5
1587.74	679.5
1589.78	678.25
1591.82	679.75
1592.33	680.75